TITLE	0_10_25_40%TFE_puferTD
DATA TYPE	
ORIGIN	JASCO
OWNER	
DATE	16/09/09
TIME	17:21:04
SPECTROMETER/DATA SYSTEM	
LOCALE	1033
XUNITS	Temperature[C]
YUNITS	CD [mdeg]
Y2UNITS	HT [V]
FIRSTX	    4.2700
LASTX	   93.7700
NPOINTS	      47
XYDATA
4.2700	0.200879	287.234
5.7900	0.257015	287.262
7.7400	0.205527	287.271
9.7200	0.232117	287.263
11.6900	0.131687	287.259
13.6800	0.325541	287.262
15.6500	0.235613	287.28
17.6400	0.14666	287.276
19.6800	0.429974	287.292
21.6300	0.15369	287.287
23.6100	0.146233	287.288
25.6200	0.209143	287.304
27.6300	0.271888	287.309
29.6200	0.285262	287.325
31.6200	0.0388301	287.319
33.6100	0.221856	287.325
35.6000	0.289339	287.33
37.5700	0.445856	287.318
39.5500	0.172742	287.362
41.5200	0.261973	287.367
43.5000	0.277936	287.375
45.4600	0.172725	287.363
47.4500	0.182949	287.376
49.4800	0.339118	287.372
51.4900	0.160806	287.374
53.3400	0.322681	287.397
55.3800	0.259447	287.386
57.2200	0.137832	287.407
59.1900	0.269787	287.39
61.1200	0.139856	287.402
63.0400	0.203607	287.445
64.9100	0.0959712	287.398
66.8400	0.201038	287.439
68.7500	0.207384	287.447
70.6800	0.119297	287.461
72.5600	0.206615	287.454
74.5400	0.180226	287.426
76.4000	0.138394	287.529
78.3100	0.196204	287.545
80.1900	0.211072	287.585
82.1100	0.367454	287.625
84.0500	0.126065	287.671
85.9800	0.219345	287.696
87.9100	0.185924	287.74
89.8900	0.352096	287.811
91.7900	0.12833	287.832
93.7700	0.218981	287.929

##### Extended Information
[Comments]
Sample name	0_10_25_40%TFE_puferTD
Comment
User
Division
Company	University of Ljubljana

[Detailed Information]
Creation date	9/9/2016 5:21 PM

Data array type	Non-linear data array * 2
Horizontal axis	Temperature [C]
Vertical axis(1)	CD [mdeg]
Vertical axis(2)	HT [V]
Start	4.27 C
End	93.77 C
Data points	47      

[Measurement Information]
Instrument name	J-1500 CD Spectrometer
Model name	J-1500
Serial No.	A020361638

Detector	PM-539
Detector S/N	A020361638
  Lock-in amp.	X mode
  HT volt	Auto

Detector	FDT-538
Detector S/N	A004361739
  Lock-in amp.	X mode
  HT volt	0 V

Accessory	MPTC-511
Accessory S/N	A001561652
  Cell	3
  Control sonsor	Holder
  Monitor sensor	Cell 1
  Start Mode	Keep target temperature +/-0.10 deg C while 10 seconds

Accessory	FMO-522
Accessory S/N	A005461740

Measurement date	9/9/2016 5:20 PM

Photometric mode	CD, HT
CD scale	200 mdeg/1.0 dOD
FL scale	200 mdeg/1.0 dOD
D.I.T.	8 sec
Bandwidth	1.00 nm
Monitor wavelength	222 nm
Em wavelength	350 nm
Baseline correction	None
Shutter control	Auto


