TITLE	0_10_25_40%TFE_puferTD
DATA TYPE	
ORIGIN	JASCO
OWNER	
DATE	16/09/09
TIME	17:21:04
SPECTROMETER/DATA SYSTEM	
LOCALE	1033
XUNITS	Temperature[C]
YUNITS	CD [mdeg]
Y2UNITS	HT [V]
FIRSTX	    4.2700
LASTX	   93.6500
NPOINTS	      47
XYDATA
4.2700	0.407452	286.807
5.6700	0.267065	286.821
7.6200	0.358657	286.799
9.6000	0.363296	286.813
11.5800	0.149699	286.802
13.5700	0.435314	286.802
15.5400	0.35528	286.815
17.5300	0.481186	286.805
19.5400	0.231383	286.831
21.5000	0.37425	286.81
23.4900	0.286413	286.808
25.5100	0.176491	286.816
27.5100	0.33527	286.829
29.5000	0.123068	286.82
31.5000	0.408153	286.838
33.4900	0.425502	286.825
35.4800	0.263535	286.81
37.4600	0.311753	286.818
39.4400	0.342277	286.834
41.4100	0.424593	286.869
43.3800	0.420587	286.861
45.3500	0.385357	286.867
47.3300	0.328322	286.848
49.3700	0.514855	286.846
51.3800	0.281948	286.863
53.2000	0.377738	286.871
55.2400	0.439144	286.862
57.0600	0.307349	286.868
59.1400	0.236637	286.858
60.9700	0.425447	286.871
62.9000	0.353481	286.893
64.7700	0.30234	286.892
66.7400	0.431349	286.931
68.6300	0.518593	286.905
70.5800	0.286022	286.904
72.4500	0.392441	286.909
74.4300	0.321012	286.9
76.3100	0.37801	286.955
78.1700	0.269899	287.009
80.0700	0.325842	287.03
81.9900	0.265317	287.074
83.9300	0.494038	287.129
85.8600	0.548156	287.175
87.7900	0.366529	287.232
89.7700	0.404002	287.297
91.6700	0.368423	287.353
93.6500	0.161192	287.426

##### Extended Information
[Comments]
Sample name	0_10_25_40%TFE_puferTD
Comment
User
Division
Company	University of Ljubljana

[Detailed Information]
Creation date	9/9/2016 5:21 PM

Data array type	Non-linear data array * 2
Horizontal axis	Temperature [C]
Vertical axis(1)	CD [mdeg]
Vertical axis(2)	HT [V]
Start	4.27 C
End	93.65 C
Data points	47      

[Measurement Information]
Instrument name	J-1500 CD Spectrometer
Model name	J-1500
Serial No.	A020361638

Detector	PM-539
Detector S/N	A020361638
  Lock-in amp.	X mode
  HT volt	Auto

Detector	FDT-538
Detector S/N	A004361739
  Lock-in amp.	X mode
  HT volt	0 V

Accessory	MPTC-511
Accessory S/N	A001561652
  Cell	2
  Control sonsor	Holder
  Monitor sensor	Cell 1
  Start Mode	Keep target temperature +/-0.10 deg C while 10 seconds

Accessory	FMO-522
Accessory S/N	A005461740

Measurement date	9/9/2016 5:20 PM

Photometric mode	CD, HT
CD scale	200 mdeg/1.0 dOD
FL scale	200 mdeg/1.0 dOD
D.I.T.	8 sec
Bandwidth	1.00 nm
Monitor wavelength	222 nm
Em wavelength	350 nm
Baseline correction	None
Shutter control	Auto


